Frequency (Hz)	Level (dB)
23.437500	-102.667511
46.875000	-101.938736
70.312500	-100.817787
93.750000	-99.388016
117.187500	-97.714859
140.625000	-95.831871
164.062500	-93.747520
187.500000	-91.450996
210.937500	-88.914116
234.375000	-86.091614
257.812500	-82.916534
281.250000	-79.290283
304.687500	-75.062508
328.125000	-69.988655
351.562500	-63.627739
375.000000	-55.034485
398.437500	-41.273659
421.875000	-19.541601
445.312500	-16.341957
468.750000	-25.522577
492.187500	-48.604980
515.625000	-59.358780
539.062500	-66.778130
562.500000	-72.496010
585.937500	-77.162598
609.375000	-81.110291
632.812500	-84.533585
656.250000	-87.556839
679.687500	-90.264008
703.125000	-92.714676
726.562500	-94.952103
750.000000	-97.007599
773.437500	-98.903572
796.875000	-100.652603
820.312500	-102.259911
843.750000	-103.710335
867.187500	-104.976753
890.625000	-105.998207
914.062500	-106.684525
937.500000	-106.927902
960.937500	-106.643761
984.375000	-105.816940
1007.812500	-104.503693
1031.250000	-102.790703
1054.687500	-100.747520
1078.125000	-98.409172
1101.562500	-95.773705
1125.000000	-92.805840
1148.437500	-89.436089
1171.875000	-85.550934
1195.312500	-80.967270
1218.750000	-75.371727
1242.187500	-68.158905
1265.625000	-57.855930
1289.062500	-37.527176
1312.500000	-26.873808
1335.937500	-28.967445
1359.375000	-47.412708
1382.812500	-62.076916
1406.250000	-70.971779
1429.687500	-77.491951
1453.125000	-82.666313
1476.562500	-86.964287
1500.000000	-90.643196
1523.437500	-93.860397
1546.875000	-96.719330
1570.312500	-99.292015
1593.750000	-101.629745
1617.187500	-103.771362
1640.625000	-105.745041
1664.062500	-107.572495
1687.500000	-109.267799
1710.937500	-110.839806
1734.375000	-112.286087
1757.812500	-113.594131
1781.250000	-114.729546
1804.687500	-115.630898
1828.125000	-116.203140
1851.562500	-116.328842
1875.000000	-115.908897
1898.437500	-114.914673
1921.875000	-113.394386
1945.312500	-111.428696
1968.750000	-109.080284
1992.187500	-106.370689
2015.625000	-103.274292
2039.062500	-99.717545
2062.500000	-95.567177
2085.937500	-90.595856
2109.375000	-84.390892
2132.812500	-76.082306
2156.250000	-63.106400
2179.687500	-36.491291
2203.125000	-32.159344
2226.562500	-39.979218
2250.000000	-67.429321
2273.437500	-78.683907
2296.875000	-86.325951
2320.312500	-92.174675
2343.750000	-96.928986
2367.187500	-100.939980
2390.625000	-104.410271
2414.062500	-107.467194
2437.500000	-110.194649
2460.937500	-112.647148
2484.375000	-114.858261
2507.812500	-116.837227
2531.250000	-118.572884
2554.687500	-120.019989
2578.125000	-121.107765
2601.562500	-121.748779
2625.000000	-121.880089
2648.437500	-121.504822
2671.875000	-120.689880
2695.312500	-119.527351
2718.750000	-118.101952
2742.187500	-116.467545
2765.625000	-114.649681
2789.062500	-112.654213
2812.500000	-110.470558
2835.937500	-108.074158
2859.375000	-105.427223
2882.812500	-102.475662
2906.250000	-99.141335
2929.687500	-95.309601
2953.125000	-90.802795
2976.562500	-85.322739
3000.000000	-78.303734
3023.437500	-68.410927
3046.875000	-50.068111
3070.312500	-37.791100
3093.750000	-38.795414
3117.187500	-54.713093
3140.625000	-70.439285
3164.062500	-79.658043
3187.500000	-86.344582
3210.937500	-91.622284
3234.375000	-95.991531
3257.812500	-99.723076
3281.250000	-102.981140
3304.687500	-105.873489
3328.125000	-108.474045
3351.562500	-110.836403
3375.000000	-113.000999
3398.437500	-114.997948
3421.875000	-116.851135
3445.312500	-118.578949
3468.750000	-120.196663
3492.187500	-121.715370
3515.625000	-123.142204
3539.062500	-124.480850
3562.500000	-125.728447
3585.937500	-126.871643
3609.375000	-127.881615
3632.812500	-128.693604
3656.250000	-129.202454
3679.687500	-129.243607
3703.125000	-128.643539
3726.562500	-127.302162
3750.000000	-125.225883
3773.437500	-122.495567
3796.875000	-119.155190
3820.312500	-115.158371
3843.750000	-110.332581
3867.187500	-104.311279
3890.625000	-96.299683
3914.062500	-84.042473
3937.500000	-46.765560
3960.937500	-41.263988
3984.375000	-47.807686
4007.812500	-85.528008
4031.250000	-97.369278
4054.687500	-105.278725
4078.125000	-111.293800
4101.562500	-116.165405
4125.000000	-120.259041
4148.437500	-123.776428
4171.875000	-126.828392
4195.312500	-129.462158
4218.750000	-131.667557
4242.187500	-133.388290
4265.625000	-134.538406
4289.062500	-135.071716
4312.500000	-135.030228
4335.937500	-134.521500
4359.375000	-133.677536
4382.812500	-132.599289
4406.250000	-131.353180
4429.687500	-129.972748
4453.125000	-128.476700
4476.562500	-126.865753
4500.000000	-125.136497
4523.437500	-123.275795
4546.875000	-121.266922
4570.312500	-119.086624
4593.750000	-116.706291
4617.187500	-114.082962
4640.625000	-111.162933
4664.062500	-107.869690
4687.500000	-104.092484
4710.937500	-99.660690
4734.375000	-94.291435
4757.812500	-87.455551
4781.250000	-77.938461
4804.687500	-61.132607
4828.125000	-47.022671
4851.562500	-46.945492
4875.000000	-60.777748
4898.437500	-77.782524
4921.875000	-87.351334
4945.312500	-94.212799
4968.750000	-99.597542
4992.187500	-104.039955
5015.625000	-107.824928
5039.062500	-111.124001
5062.500000	-114.049034
5085.937500	-116.676414
5109.375000	-119.061188
5132.812500	-121.245331
5156.250000	-123.259224
5179.687500	-125.125130
5203.125000	-126.868393
5226.562500	-128.499237
5250.000000	-130.027634
5273.437500	-131.463303
5296.875000	-132.808411
5320.312500	-134.055618
5343.750000	-135.194977
5367.187500	-136.175720
5390.625000	-136.938400
5414.062500	-137.335388
5437.500000	-137.200760
5460.937500	-136.379486
5484.375000	-134.806870
5507.812500	-132.542496
5531.250000	-129.679306
5554.687500	-126.252632
5578.125000	-122.212029
5601.562500	-117.374565
5625.000000	-111.394539
5648.437500	-103.532860
5671.875000	-91.787376
5695.312500	-56.554699
5718.750000	-49.833046
5742.187500	-55.164768
5765.625000	-89.929985
5789.062500	-102.292587
5812.500000	-110.354034
5835.937500	-116.413094
5859.375000	-121.282639
5882.812500	-125.353470
5906.250000	-128.846008
5929.687500	-131.892380
5953.125000	-134.561249
5976.562500	-136.893250
6000.000000	-138.882843
6023.437500	-140.488983
6046.875000	-141.641571
6070.312500	-142.261597
6093.750000	-142.353989
6117.187500	-141.964142
6140.625000	-141.190643
6164.062500	-140.133789
6187.500000	-138.870438
6210.937500	-137.440994
6234.375000	-135.878296
6257.812500	-134.179642
6281.250000	-132.343872
6304.687500	-130.356064
6328.125000	-128.199570
6351.562500	-125.841110
6375.000000	-123.245300
6398.437500	-120.358505
6421.875000	-117.106956
6445.312500	-113.382164
6468.750000	-109.023193
6492.187500	-103.760635
6515.625000	-97.098282
6539.062500	-87.927284
6562.500000	-72.364418
6585.937500	-56.117668
6609.375000	-54.958412
6632.812500	-66.992302
6656.250000	-85.586395
6679.687500	-95.535553
6703.125000	-102.581650
6726.562500	-108.077866
6750.000000	-112.595680
6773.437500	-116.435371
6796.875000	-119.776596
6820.312500	-122.735413
6843.750000	-125.388237
6867.187500	-127.796173
6890.625000	-129.997253
6914.062500	-132.022720
6937.500000	-133.899460
6960.937500	-135.634552
6984.375000	-137.243408
7007.812500	-138.731384
7031.250000	-140.065002
7054.687500	-141.219910
7078.125000	-142.142715
7101.562500	-142.721954
7125.000000	-142.824188
7148.437500	-142.382889
7171.875000	-141.356552
7195.312500	-139.831161
7218.750000	-137.873642
7242.187500	-135.555786
7265.625000	-132.894882
7289.062500	-129.871490
7312.500000	-126.420578
7335.937500	-122.423660
7359.375000	-117.683258
7382.812500	-111.854370
7406.250000	-104.245796
7429.687500	-93.066315
7453.125000	-66.410164
7476.562500	-58.401627
7500.000000	-62.569805
7523.437500	-88.319496
7546.875000	-101.401665
7570.312500	-109.750267
7593.750000	-115.977882
7617.187500	-120.966232
7640.625000	-125.131744
7664.062500	-128.712570
7687.500000	-131.848114
7710.937500	-134.638779
7734.375000	-137.142975
7757.812500	-139.404160
7781.250000	-141.452026
7804.687500	-143.286865
7828.125000	-144.893082
7851.562500	-146.231979
7875.000000	-147.215195
7898.437500	-147.782898
7921.875000	-147.854996
7945.312500	-147.428680
7968.750000	-146.549377
7992.187500	-145.320221
8015.625000	-143.821487
8039.062500	-142.101669
8062.500000	-140.186127
8085.937500	-138.080078
8109.375000	-135.760986
8132.812500	-133.197906
8156.250000	-130.345337
8179.687500	-127.136627
8203.125000	-123.464249
8226.562500	-119.176758
8250.000000	-114.017159
8273.437500	-107.519966
8296.875000	-98.669533
8320.312500	-84.143005
8343.750000	-65.285606
8367.187500	-63.035194
8390.625000	-73.470001
8414.062500	-94.134125
8437.500000	-104.498795
8460.937500	-111.740494
8484.375000	-117.353600
8507.812500	-121.949425
8531.250000	-125.845421
8554.687500	-129.230286
8578.125000	-132.223206
8601.562500	-134.901535
8625.000000	-137.331467
8648.437500	-139.545319
8671.875000	-141.581573
8695.312500	-143.450195
8718.750000	-145.155182
8742.187500	-146.712372
8765.625000	-148.073151
8789.062500	-149.203827
8812.500000	-150.007278
8835.937500	-150.376221
8859.375000	-150.250122
8882.812500	-149.584396
8906.250000	-148.441177
8929.687500	-146.911423
8953.125000	-145.038971
8976.562500	-142.915085
9000.000000	-140.517914
9023.437500	-137.843307
9046.875000	-134.840317
9070.312500	-131.421753
9093.750000	-127.485275
9117.187500	-122.831711
9140.625000	-117.131821
9164.062500	-109.742836
9187.500000	-99.056175
9210.937500	-76.435516
9234.375000	-67.052124
9257.812500	-70.092392
9281.250000	-91.287209
9304.687500	-105.168793
9328.125000	-113.804619
9351.562500	-120.187492
9375.000000	-125.275635
9398.437500	-129.514252
9421.875000	-133.145828
9445.312500	-136.335037
9468.750000	-139.161926
9492.187500	-141.709015
9515.625000	-144.020905
9539.062500	-146.131943
9562.500000	-148.071335
9585.937500	-149.852585
9609.375000	-151.445099
9632.812500	-152.889908
9656.250000	-154.074631
9679.687500	-154.964600
9703.125000	-155.519928
9726.562500	-155.532410
9750.000000	-155.077759
9773.437500	-154.091232
9796.875000	-152.678589
9820.312500	-151.038910
9843.750000	-149.002975
9867.187500	-146.753708
9890.625000	-144.261658
9914.062500	-141.461258
9937.500000	-138.290543
9960.937500	-134.673676
9984.375000	-130.458099
10007.812500	-125.398239
10031.250000	-119.059456
10054.687500	-110.507095
10078.125000	-96.865051
10101.562500	-74.565933
10125.000000	-71.206390
10148.437500	-80.186485
10171.875000	-103.760712
10195.312500	-114.582573
10218.750000	-122.032928
10242.187500	-127.767601
10265.625000	-132.448242
10289.062500	-136.402313
10312.500000	-139.831894
10335.937500	-142.855347
10359.375000	-145.566772
10382.812500	-148.028259
10406.250000	-150.235474
10429.687500	-152.272568
10453.125000	-154.088089
10476.562500	-155.737228
10500.000000	-157.111176
10523.437500	-158.233353
10546.875000	-159.025085
10570.312500	-159.125809
10593.750000	-158.870590
10617.187500	-158.088928
10640.625000	-156.918701
10664.062500	-155.390808
10687.500000	-153.673141
10710.937500	-151.740234
10734.375000	-149.560379
10757.812500	-147.161972
10781.250000	-144.485199
10804.687500	-141.517532
10828.125000	-138.144424
10851.562500	-134.263062
10875.000000	-129.688004
10898.437500	-124.109558
10921.875000	-116.924919
10945.312500	-106.682961
10968.750000	-86.674583
10992.187500	-75.799591
11015.625000	-77.736816
11039.062500	-95.784767
11062.500000	-110.589859
11085.937500	-119.529297
11109.375000	-126.073944
11132.812500	-131.262878
11156.250000	-135.570343
11179.687500	-139.267822
11203.125000	-142.479980
11226.562500	-145.343430
11250.000000	-147.910019
11273.437500	-150.276596
11296.875000	-152.386581
11320.312500	-154.365952
11343.750000	-156.211136
11367.187500	-157.913300
11390.625000	-159.478745
11414.062500	-160.886505
11437.500000	-162.228668
11460.937500	-163.346375
11484.375000	-164.236191
11507.812500	-164.587936
11531.250000	-164.475067
11554.687500	-163.158615
11578.125000	-162.867661
11601.562500	-161.621552
11625.000000	-159.673615
11648.437500	-157.297623
11671.875000	-154.536469
11695.312500	-151.548325
11718.750000	-147.943726
11742.187500	-143.816803
11765.625000	-138.859680
11789.062500	-132.679108
11812.500000	-124.410370
11835.937500	-111.539207
11859.375000	-83.972221
11882.812500	-79.475754
11906.250000	-87.108673
11929.687500	-115.440636
11953.125000	-126.771637
11976.562500	-134.446167
12000.000000	-140.317902
12023.437500	-145.085098
12046.875000	-149.102875
12070.312500	-152.570480
12093.750000	-155.652420
12117.187500	-158.372665
12140.625000	-160.808380
12164.062500	-163.017212
12187.500000	-164.892593
12210.937500	-166.595963
12234.375000	-167.877365
12257.812500	-168.754898
12281.250000	-169.083511
12304.687500	-168.881378
12328.125000	-168.320160
12351.562500	-167.644028
12375.000000	-166.353302
12398.437500	-164.893280
12421.875000	-162.423416
12445.312500	-160.536407
12468.750000	-159.293121
12492.187500	-157.179184
12515.625000	-154.811172
12539.062500	-152.170822
12562.500000	-149.218475
12585.937500	-145.881454
12609.375000	-142.065582
12632.812500	-137.566666
12656.250000	-132.100830
12679.687500	-125.109993
12703.125000	-115.273605
12726.562500	-97.172882
12750.000000	-84.648529
12773.437500	-85.498062
12796.875000	-101.095528
12820.312500	-116.989449
12843.750000	-126.256737
12867.187500	-132.967804
12890.625000	-138.260223
12914.062500	-142.637634
12937.500000	-146.380478
12960.937500	-149.641891
12984.375000	-152.550278
13007.812500	-155.139191
13031.250000	-157.489807
13054.687500	-159.727081
13078.125000	-161.608704
13101.562500	-163.480621
13125.000000	-165.243271
13148.437500	-166.867462
13171.875000	-168.005737
13195.312500	-169.434555
13218.750000	-170.968323
13242.187500	-172.287903
13265.625000	-173.389420
13289.062500	-174.142365
13312.500000	-173.489182
13335.937500	-175.030045
13359.375000	-176.529648
13382.812500	-176.057709
13406.250000	-175.836777
13429.687500	-174.147110
13453.125000	-171.941818
13476.562500	-168.994217
13500.000000	-165.087753
13523.437500	-160.330338
13546.875000	-154.376816
13570.312500	-146.425156
13593.750000	-134.300873
13617.187500	-93.515518
13640.625000	-87.843079
13664.062500	-94.210129
13687.500000	-135.468277
13710.937500	-147.418839
13734.375000	-155.368256
13757.812500	-161.407654
13781.250000	-166.300247
13804.687500	-170.220474
13828.125000	-173.734634
13851.562500	-176.458328
13875.000000	-179.004028
13898.437500	-180.343964
13921.875000	-177.184784
13945.312500	-176.614410
13968.750000	-180.410706
13992.187500	-181.312302
14015.625000	-180.622726
14039.062500	-179.424698
14062.500000	-178.692963
14085.937500	-177.838669
14109.375000	-176.160385
14132.812500	-174.305344
14156.250000	-173.311966
14179.687500	-170.854416
14203.125000	-169.547577
14226.562500	-167.841339
14250.000000	-165.612686
14273.437500	-163.196945
14296.875000	-160.600281
14320.312500	-157.716232
14343.750000	-154.398529
14367.187500	-150.653412
14390.625000	-146.231186
14414.062500	-140.886093
14437.500000	-134.074249
14460.937500	-124.608513
14484.375000	-107.995941
14507.812500	-93.602219
14531.250000	-93.370712
14554.687500	-106.931190
14578.125000	-124.141457
14601.562500	-133.762985
14625.000000	-140.644623
14648.437500	-146.048706
14671.875000	-150.493332
14695.312500	-154.305450
14718.750000	-157.575500
14742.187500	-160.493866
14765.625000	-163.126617
14789.062500	-165.515076
14812.500000	-167.638596
14835.937500	-169.662491
14859.375000	-171.656952
14882.812500	-173.189758
14906.250000	-174.754303
14929.687500	-175.745590
14953.125000	-177.522812
14976.562500	-178.692444
15000.000000	-179.717896
15023.437500	-181.231232
15046.875000	-180.914413
15070.312500	-180.616318
15093.750000	-181.745682
15117.187500	-181.566940
15140.625000	-180.932663
15164.062500	-179.260010
15187.500000	-176.889038
15210.937500	-174.208862
15234.375000	-170.731979
15257.812500	-166.683578
15281.250000	-161.969025
15304.687500	-156.013351
15328.125000	-148.171463
15351.562500	-136.528534
15375.000000	-103.208969
15398.437500	-96.307991
15421.875000	-101.470917
15445.312500	-134.277832
15468.750000	-146.720169
15492.187500	-154.827744
15515.625000	-160.943680
15539.062500	-165.794144
15562.500000	-169.756882
15585.937500	-173.278503
15609.375000	-176.102036
15632.812500	-178.503708
15656.250000	-180.593704
15679.687500	-180.928497
15703.125000	-182.103363
15726.562500	-183.512817
15750.000000	-185.548782
15773.437500	-186.343307
15796.875000	-182.257111
15820.312500	-182.618408
15843.750000	-184.714371
15867.187500	-183.364380
15890.625000	-182.384018
15914.062500	-181.455566
15937.500000	-179.806274
15960.937500	-178.224274
15984.375000	-176.679001
16007.812500	-174.619904
16031.250000	-172.302826
16054.687500	-169.384598
16078.125000	-166.882446
16101.562500	-163.749176
16125.000000	-160.013519
16148.437500	-155.661835
16171.875000	-150.427261
16195.312500	-143.764267
16218.750000	-134.654419
16242.187500	-119.250549
16265.625000	-102.664955
16289.062500	-101.350578
16312.500000	-113.144958
16335.937500	-131.999817
16359.375000	-142.001938
16382.812500	-149.077087
16406.250000	-154.608994
16429.687500	-159.130310
16453.125000	-162.930252
16476.562500	-166.375870
16500.000000	-169.159210
16523.437500	-171.812866
16546.875000	-174.202103
16570.312500	-175.935318
16593.750000	-178.372269
16617.187500	-179.985062
16640.625000	-181.028458
16664.062500	-180.586655
16687.500000	-181.458206
16710.937500	-184.511612
16734.375000	-185.191315
16757.812500	-185.357162
16781.250000	-185.995529
16804.687500	-182.512497
16828.125000	-182.686050
16851.562500	-185.186493
16875.000000	-184.878265
16898.437500	-182.804413
16921.875000	-177.042847
16945.312500	-174.881561
16968.750000	-175.688828
16992.187500	-172.003708
17015.625000	-168.223984
17039.062500	-163.439362
17062.500000	-157.669373
17085.937500	-150.105026
17109.375000	-139.002045
17132.812500	-113.069496
17156.250000	-104.870422
17179.687500	-108.875679
17203.125000	-133.834061
17226.562500	-147.024612
17250.000000	-155.412964
17273.437500	-161.653290
17296.875000	-166.532990
17320.312500	-170.943405
17343.750000	-174.329071
17367.187500	-177.100662
17390.625000	-179.597580
17414.062500	-181.682281
17437.500000	-183.687332
17460.937500	-185.474609
17484.375000	-186.034912
17507.812500	-185.273270
17531.250000	-180.900101
17554.687500	-174.916824
17578.125000	-174.967224
17601.562500	-188.169708
17625.000000	-188.225601
17648.437500	-188.906769
17671.875000	-182.050598
17695.312500	-180.713745
17718.750000	-184.518860
17742.187500	-184.544434
17765.625000	-183.910400
17789.062500	-182.003998
17812.500000	-179.248367
17835.937500	-177.109497
17859.375000	-174.131561
17882.812500	-169.990860
17906.250000	-165.913467
17929.687500	-160.778854
17953.125000	-154.311996
17976.562500	-145.521271
18000.000000	-131.127121
18023.437500	-111.841408
18046.875000	-109.433800
18070.312500	-119.653145
18093.750000	-140.666351
18117.187500	-151.103226
18140.625000	-158.328384
18164.062500	-164.043839
18187.500000	-168.568680
18210.937500	-172.354767
18234.375000	-175.776855
18257.812500	-178.059586
18281.250000	-180.751816
18304.687500	-180.799454
18328.125000	-181.559219
18351.562500	-185.589020
18375.000000	-187.435562
18398.437500	-188.134354
18421.875000	-172.981842
18445.312500	-172.484009
18468.750000	-178.743225
18492.187500	-187.478622
18515.625000	-188.269897
18539.062500	-187.924988
18562.500000	-187.098663
18585.937500	-188.853149
18609.375000	-187.111221
18632.812500	-185.095764
18656.250000	-186.484467
18679.687500	-181.885117
18703.125000	-181.573593
18726.562500	-180.139328
18750.000000	-177.315811
18773.437500	-173.703537
18796.875000	-168.887894
18820.312500	-163.296066
18843.750000	-155.937866
18867.187500	-145.307755
18890.625000	-123.121147
18914.062500	-113.532181
18937.500000	-116.413826
18960.937500	-137.096863
18984.375000	-151.121719
19007.812500	-159.744232
19031.250000	-166.147995
19054.687500	-170.440063
19078.125000	-174.790466
19101.562500	-178.741684
19125.000000	-181.894501
19148.437500	-183.122055
19171.875000	-181.287338
19195.312500	-180.635452
19218.750000	-187.060211
19242.187500	-188.113632
19265.625000	-188.759125
19289.062500	-187.790771
